#FORMAT	     : EMSA/MAS Spectral Data File
#VERSION     : 1.0
#TITLE       : LiF(0-0910eV)
#DATE        : 
#TIME        : 
#OWNER       : 
#NPOINTS     : 1024
#NCOLUMNS    : 1
#XUNITS      : eV
#YUNITS      : 
#DATATYPE    : XY
#OFFSET      : -1.100000e+002
#SIGNALTYPE  : ELS
#SPECTRUM    : Spectral Data Starts Here
-1.100000e+002, 1.000000e-001
-1.090000e+002, 1.000000e-001
-1.080000e+002, 1.000000e-001
-1.070000e+002, 1.000000e-001
-1.060000e+002, 1.000000e-001
-1.050000e+002, 1.000000e-001
-1.040000e+002, 1.000000e-001
-1.030000e+002, 1.000000e-001
-1.020000e+002, 1.000000e-001
-1.010000e+002, 1.000000e-001
-1.000000e+002, 1.000000e-001
-9.900000e+001, 1.000000e-001
-9.800000e+001, 1.000000e-001
-9.700000e+001, 1.000000e-001
-9.600000e+001, 1.000000e-001
-9.500000e+001, 1.000000e-001
-9.400000e+001, 1.000000e-001
-9.300000e+001, 1.000000e-001
-9.200000e+001, 1.000000e-001
-9.100000e+001, 1.000000e-001
-9.000000e+001, 1.000000e-001
-8.900000e+001, 1.000000e-001
-8.800000e+001, 1.000000e-001
-8.700000e+001, 1.070000e+002
-8.600000e+001, 2.870000e+002
-8.500000e+001, 5.740000e+002
-8.400000e+001, 7.530000e+002
-8.300000e+001, 7.840000e+002
-8.200000e+001, 7.930000e+002
-8.100000e+001, 7.860000e+002
-8.000000e+001, 7.870000e+002
-7.900000e+001, 7.920000e+002
-7.800000e+001, 8.230000e+002
-7.700000e+001, 8.230000e+002
-7.600000e+001, 8.260000e+002
-7.500000e+001, 8.220000e+002
-7.400000e+001, 8.260000e+002
-7.300000e+001, 8.240000e+002
-7.200000e+001, 8.220000e+002
-7.100000e+001, 8.250000e+002
-7.000000e+001, 8.250000e+002
-6.900000e+001, 8.260000e+002
-6.800000e+001, 8.240000e+002
-6.700000e+001, 8.200000e+002
-6.600000e+001, 8.230000e+002
-6.500000e+001, 8.280000e+002
-6.400000e+001, 8.270000e+002
-6.300000e+001, 8.230000e+002
-6.200000e+001, 8.230000e+002
-6.100000e+001, 8.250000e+002
-6.000000e+001, 8.220000e+002
-5.900000e+001, 8.260000e+002
-5.800000e+001, 8.260000e+002
-5.700000e+001, 8.230000e+002
-5.600000e+001, 8.240000e+002
-5.500000e+001, 8.270000e+002
-5.400000e+001, 8.250000e+002
-5.300000e+001, 8.190000e+002
-5.200000e+001, 8.250000e+002
-5.100000e+001, 8.270000e+002
-5.000000e+001, 8.230000e+002
-4.900000e+001, 8.250000e+002
-4.800000e+001, 8.260000e+002
-4.700000e+001, 8.250000e+002
-4.600000e+001, 8.240000e+002
-4.500000e+001, 8.250000e+002
-4.400000e+001, 8.230000e+002
-4.300000e+001, 8.270000e+002
-4.200000e+001, 8.230000e+002
-4.100000e+001, 8.280000e+002
-4.000000e+001, 8.250000e+002
-3.900000e+001, 8.250000e+002
-3.800000e+001, 8.240000e+002
-3.700000e+001, 8.250000e+002
-3.600000e+001, 8.250000e+002
-3.500000e+001, 8.260000e+002
-3.400000e+001, 8.230000e+002
-3.300000e+001, 8.230000e+002
-3.200000e+001, 8.270000e+002
-3.100000e+001, 8.260000e+002
-3.000000e+001, 8.220000e+002
-2.900000e+001, 8.290000e+002
-2.800000e+001, 8.260000e+002
-2.700000e+001, 8.230000e+002
-2.600000e+001, 8.210000e+002
-2.500000e+001, 8.310000e+002
-2.400000e+001, 8.270000e+002
-2.300000e+001, 8.190000e+002
-2.200000e+001, 8.270000e+002
-2.100000e+001, 8.280000e+002
-2.000000e+001, 8.260000e+002
-1.900000e+001, 8.260000e+002
-1.800000e+001, 8.260000e+002
-1.700000e+001, 8.250000e+002
-1.600000e+001, 8.300000e+002
-1.500000e+001, 8.250000e+002
-1.400000e+001, 8.280000e+002
-1.300000e+001, 8.260000e+002
-1.200000e+001, 8.330000e+002
-1.100000e+001, 8.320000e+002
-1.000000e+001, 8.300000e+002
-9.000000e+000, 8.390000e+002
-8.000000e+000, 8.490000e+002
-7.000000e+000, 8.640000e+002
-6.000000e+000, 9.070000e+002
-5.000000e+000, 1.008000e+003
-4.000000e+000, 1.414000e+003
-3.000000e+000, 2.834000e+003
-2.000000e+000, 1.047500e+004
-1.000000e+000, 5.299100e+004
0.000000e+000, 1.204970e+005
1.000000e+000, 6.952700e+004
2.000000e+000, 1.710800e+004
3.000000e+000, 6.187000e+003
4.000000e+000, 4.353000e+003
5.000000e+000, 3.660000e+003
6.000000e+000, 3.434000e+003
7.000000e+000, 3.614000e+003
8.000000e+000, 3.668000e+003
9.000000e+000, 3.494000e+003
1.000000e+001, 3.434000e+003
1.100000e+001, 3.516000e+003
1.200000e+001, 4.025000e+003
1.300000e+001, 5.278000e+003
1.400000e+001, 6.111000e+003
1.500000e+001, 6.400000e+003
1.600000e+001, 6.482000e+003
1.700000e+001, 6.459000e+003
1.800000e+001, 6.496000e+003
1.900000e+001, 6.472000e+003
2.000000e+001, 6.683000e+003
2.100000e+001, 7.200000e+003
2.200000e+001, 8.119000e+003
2.300000e+001, 9.555000e+003
2.400000e+001, 1.097400e+004
2.500000e+001, 1.139500e+004
2.600000e+001, 1.053400e+004
2.700000e+001, 8.807010e+003
2.800000e+001, 7.240000e+003
2.900000e+001, 6.391000e+003
3.000000e+001, 5.952000e+003
3.100000e+001, 5.649000e+003
3.200000e+001, 5.431000e+003
3.300000e+001, 5.275000e+003
3.400000e+001, 5.226000e+003
3.500000e+001, 5.203000e+003
3.600000e+001, 5.183000e+003
3.700000e+001, 5.180000e+003
3.800000e+001, 5.179000e+003
3.900000e+001, 5.190000e+003
4.000000e+001, 5.247000e+003
4.100000e+001, 5.322000e+003
4.200000e+001, 5.355000e+003
4.300000e+001, 5.369000e+003
4.400000e+001, 5.276000e+003
4.500000e+001, 5.143000e+003
4.600000e+001, 5.001000e+003
4.700000e+001, 4.856000e+003
4.800000e+001, 4.762000e+003
4.900000e+001, 4.673000e+003
5.000000e+001, 4.579000e+003
5.100000e+001, 4.444000e+003
5.200000e+001, 4.301000e+003
5.300000e+001, 4.178000e+003
5.400000e+001, 4.082000e+003
5.500000e+001, 4.043000e+003
5.600000e+001, 4.030000e+003
5.700000e+001, 4.038000e+003
5.800000e+001, 4.054000e+003
5.900000e+001, 4.075000e+003
6.000000e+001, 4.229000e+003
6.100000e+001, 4.680000e+003
6.200000e+001, 4.848000e+003
6.300000e+001, 4.516000e+003
6.400000e+001, 4.319000e+003
6.500000e+001, 4.293000e+003
6.600000e+001, 4.284000e+003
6.700000e+001, 4.286000e+003
6.800000e+001, 4.290000e+003
6.900000e+001, 4.287000e+003
7.000000e+001, 4.139000e+003
7.100000e+001, 3.907000e+003
7.200000e+001, 3.708000e+003
7.300000e+001, 3.591000e+003
7.400000e+001, 3.515000e+003
7.500000e+001, 3.465000e+003
7.600000e+001, 3.443000e+003
7.700000e+001, 3.430000e+003
7.800000e+001, 3.409000e+003
7.900000e+001, 3.396000e+003
8.000000e+001, 3.378000e+003
8.100000e+001, 3.359000e+003
8.200000e+001, 3.333000e+003
8.300000e+001, 3.316000e+003
8.400000e+001, 3.293000e+003
8.500000e+001, 3.277000e+003
8.600000e+001, 3.261000e+003
8.700000e+001, 3.232000e+003
8.800000e+001, 3.194000e+003
8.900000e+001, 3.142000e+003
9.000000e+001, 3.102000e+003
9.100000e+001, 3.057000e+003
9.200000e+001, 3.019000e+003
9.300000e+001, 2.988000e+003
9.400000e+001, 2.965000e+003
9.500000e+001, 2.934000e+003
9.600000e+001, 2.894000e+003
9.700000e+001, 2.857000e+003
9.800000e+001, 2.826000e+003
9.900000e+001, 2.804000e+003
1.000000e+002, 2.773000e+003
1.010000e+002, 2.745000e+003
1.020000e+002, 2.716000e+003
1.030000e+002, 2.694000e+003
1.040000e+002, 2.663000e+003
1.050000e+002, 2.641000e+003
1.060000e+002, 2.610000e+003
1.070000e+002, 2.576000e+003
1.080000e+002, 2.554000e+003
1.090000e+002, 2.523000e+003
1.100000e+002, 2.501000e+003
1.110000e+002, 2.472000e+003
1.120000e+002, 2.452000e+003
1.130000e+002, 2.425000e+003
1.140000e+002, 2.401000e+003
1.150000e+002, 2.373000e+003
1.160000e+002, 2.353000e+003
1.170000e+002, 2.324000e+003
1.180000e+002, 2.301000e+003
1.190000e+002, 2.283000e+003
1.200000e+002, 2.253000e+003
1.210000e+002, 2.236000e+003
1.220000e+002, 2.225000e+003
1.230000e+002, 2.197000e+003
1.240000e+002, 2.180000e+003
1.250000e+002, 2.160000e+003
1.260000e+002, 2.148000e+003
1.270000e+002, 2.119000e+003
1.280000e+002, 2.107000e+003
1.290000e+002, 2.090000e+003
1.300000e+002, 2.072000e+003
1.310000e+002, 2.052000e+003
1.320000e+002, 2.033000e+003
1.330000e+002, 2.012000e+003
1.340000e+002, 2.004000e+003
1.350000e+002, 1.983000e+003
1.360000e+002, 1.962000e+003
1.370000e+002, 1.949000e+003
1.380000e+002, 1.933000e+003
1.390000e+002, 1.914000e+003
1.400000e+002, 1.899000e+003
1.410000e+002, 1.886000e+003
1.420000e+002, 1.866000e+003
1.430000e+002, 1.850000e+003
1.440000e+002, 1.837000e+003
1.450000e+002, 1.822000e+003
1.460000e+002, 1.812000e+003
1.470000e+002, 1.790000e+003
1.480000e+002, 1.781000e+003
1.490000e+002, 1.773000e+003
1.500000e+002, 1.753000e+003
1.510000e+002, 1.741000e+003
1.520000e+002, 1.726000e+003
1.530000e+002, 1.715000e+003
1.540000e+002, 1.704000e+003
1.550000e+002, 1.693000e+003
1.560000e+002, 1.679000e+003
1.570000e+002, 1.662000e+003
1.580000e+002, 1.656000e+003
1.590000e+002, 1.643000e+003
1.600000e+002, 1.630000e+003
1.610000e+002, 1.618000e+003
1.620000e+002, 1.607000e+003
1.630000e+002, 1.601000e+003
1.640000e+002, 1.587000e+003
1.650000e+002, 1.575000e+003
1.660000e+002, 1.564000e+003
1.670000e+002, 1.554000e+003
1.680000e+002, 1.540000e+003
1.690000e+002, 1.536000e+003
1.700000e+002, 1.524000e+003
1.710000e+002, 1.513000e+003
1.720000e+002, 1.502000e+003
1.730000e+002, 1.499000e+003
1.740000e+002, 1.493000e+003
1.750000e+002, 1.479000e+003
1.760000e+002, 1.466000e+003
1.770000e+002, 1.463000e+003
1.780000e+002, 1.456000e+003
1.790000e+002, 1.439000e+003
1.800000e+002, 1.433000e+003
1.810000e+002, 1.427000e+003
1.820000e+002, 1.419000e+003
1.830000e+002, 1.412000e+003
1.840000e+002, 1.401000e+003
1.850000e+002, 1.395000e+003
1.860000e+002, 1.382000e+003
1.870000e+002, 1.382000e+003
1.880000e+002, 1.373000e+003
1.890000e+002, 1.368000e+003
1.900000e+002, 1.353000e+003
1.910000e+002, 1.355000e+003
1.920000e+002, 1.341000e+003
1.930000e+002, 1.337000e+003
1.940000e+002, 1.325000e+003
1.950000e+002, 1.326000e+003
1.960000e+002, 1.315000e+003
1.970000e+002, 1.309000e+003
1.980000e+002, 1.300000e+003
1.990000e+002, 1.297000e+003
2.000000e+002, 1.290000e+003
2.010000e+002, 1.285000e+003
2.020000e+002, 1.278000e+003
2.030000e+002, 1.271000e+003
2.040000e+002, 1.269000e+003
2.050000e+002, 1.262000e+003
2.060000e+002, 1.256000e+003
2.070000e+002, 1.249000e+003
2.080000e+002, 1.246000e+003
2.090000e+002, 1.240000e+003
2.100000e+002, 1.236000e+003
2.110000e+002, 1.227000e+003
2.120000e+002, 1.222000e+003
2.130000e+002, 1.220000e+003
2.140000e+002, 1.214000e+003
2.150000e+002, 1.207000e+003
2.160000e+002, 1.206000e+003
2.170000e+002, 1.197000e+003
2.180000e+002, 1.194000e+003
2.190000e+002, 1.187000e+003
2.200000e+002, 1.185000e+003
2.210000e+002, 1.180000e+003
2.220000e+002, 1.176000e+003
2.230000e+002, 1.170000e+003
2.240000e+002, 1.174000e+003
2.250000e+002, 1.161000e+003
2.260000e+002, 1.161000e+003
2.270000e+002, 1.150000e+003
2.280000e+002, 1.150000e+003
2.290000e+002, 1.151000e+003
2.300000e+002, 1.142000e+003
2.310000e+002, 1.139000e+003
2.320000e+002, 1.134000e+003
2.330000e+002, 1.130000e+003
2.340000e+002, 1.130000e+003
2.350000e+002, 1.125000e+003
2.360000e+002, 1.121000e+003
2.370000e+002, 1.116000e+003
2.380000e+002, 1.115000e+003
2.390000e+002, 1.333300e+004
2.400000e+002, 3.151200e+004
2.410000e+002, 4.997900e+004
2.420000e+002, 7.135700e+004
2.430000e+002, 7.647900e+004
2.440000e+002, 7.565100e+004
2.450000e+002, 7.514600e+004
2.460000e+002, 7.396200e+004
2.470000e+002, 7.337200e+004
2.480000e+002, 7.233300e+004
2.490000e+002, 7.114600e+004
2.500000e+002, 6.995900e+004
2.510000e+002, 6.950700e+004
2.520000e+002, 6.833100e+004
2.530000e+002, 6.812900e+004
2.540000e+002, 6.733200e+004
2.550000e+002, 6.638700e+004
2.560000e+002, 6.557200e+004
2.570000e+002, 6.471010e+004
2.580000e+002, 6.423800e+004
2.590000e+002, 6.344400e+004
2.600000e+002, 6.278400e+004
2.610000e+002, 6.204500e+004
2.620000e+002, 6.103000e+004
2.630000e+002, 6.076000e+004
2.640000e+002, 5.987300e+004
2.650000e+002, 5.957000e+004
2.660000e+002, 5.855700e+004
2.670000e+002, 5.793200e+004
2.680000e+002, 5.754500e+004
2.690000e+002, 5.673200e+004
2.700000e+002, 5.604900e+004
2.710000e+002, 5.546700e+004
2.720000e+002, 5.454300e+004
2.730000e+002, 5.428800e+004
2.740000e+002, 5.403000e+004
2.750000e+002, 5.303300e+004
2.760000e+002, 5.256500e+004
2.770000e+002, 5.197800e+004
2.780000e+002, 5.182600e+004
2.790000e+002, 5.067300e+004
2.800000e+002, 5.086300e+004
2.810000e+002, 5.012800e+004
2.820000e+002, 5.031700e+004
2.830000e+002, 5.056100e+004
2.840000e+002, 4.971210e+004
2.850000e+002, 4.982100e+004
2.860000e+002, 4.886700e+004
2.870000e+002, 4.865900e+004
2.880000e+002, 4.827500e+004
2.890000e+002, 4.829700e+004
2.900000e+002, 4.781000e+004
2.910000e+002, 4.780300e+004
2.920000e+002, 4.723600e+004
2.930000e+002, 4.709500e+004
2.940000e+002, 4.641100e+004
2.950000e+002, 4.608500e+004
2.960000e+002, 4.584100e+004
2.970000e+002, 4.571900e+004
2.980000e+002, 4.484400e+004
2.990000e+002, 4.451100e+004
3.000000e+002, 4.383300e+004
3.010000e+002, 4.348900e+004
3.020000e+002, 4.317000e+004
3.030000e+002, 4.233800e+004
3.040000e+002, 4.183700e+004
3.050000e+002, 4.176100e+004
3.060000e+002, 4.109100e+004
3.070000e+002, 4.061700e+004
3.080000e+002, 4.042700e+004
3.090000e+002, 4.002800e+004
3.100000e+002, 3.961700e+004
3.110000e+002, 3.916600e+004
3.120000e+002, 3.906900e+004
3.130000e+002, 3.889400e+004
3.140000e+002, 3.857400e+004
3.150000e+002, 3.835800e+004
3.160000e+002, 3.780500e+004
3.170000e+002, 3.756300e+004
3.180000e+002, 3.708800e+004
3.190000e+002, 3.693900e+004
3.200000e+002, 3.668700e+004
3.210000e+002, 3.615400e+004
3.220000e+002, 3.583700e+004
3.230000e+002, 3.566400e+004
3.240000e+002, 3.564700e+004
3.250000e+002, 3.494700e+004
3.260000e+002, 3.516700e+004
3.270000e+002, 3.438700e+004
3.280000e+002, 3.417900e+004
3.290000e+002, 3.370400e+004
3.300000e+002, 3.338300e+004
3.310000e+002, 3.312200e+004
3.320000e+002, 3.299700e+004
3.330000e+002, 3.246500e+004
3.340000e+002, 3.230500e+004
3.350000e+002, 3.219600e+004
3.360000e+002, 3.179300e+004
3.370000e+002, 3.139800e+004
3.380000e+002, 3.119200e+004
3.390000e+002, 3.059100e+004
3.400000e+002, 3.076700e+004
3.410000e+002, 3.067800e+004
3.420000e+002, 3.019500e+004
3.430000e+002, 2.990400e+004
3.440000e+002, 2.962900e+004
3.450000e+002, 2.959500e+004
3.460000e+002, 2.910300e+004
3.470000e+002, 2.899600e+004
3.480000e+002, 2.907600e+004
3.490000e+002, 2.882200e+004
3.500000e+002, 2.819500e+004
3.510000e+002, 2.831700e+004
3.520000e+002, 2.789600e+004
3.530000e+002, 2.778700e+004
3.540000e+002, 2.747500e+004
3.550000e+002, 2.721800e+004
3.560000e+002, 2.689500e+004
3.570000e+002, 2.693200e+004
3.580000e+002, 2.658900e+004
3.590000e+002, 2.630800e+004
3.600000e+002, 2.601600e+004
3.610000e+002, 2.610400e+004
3.620000e+002, 2.585800e+004
3.630000e+002, 2.560500e+004
3.640000e+002, 2.542400e+004
3.650000e+002, 2.518400e+004
3.660000e+002, 2.503700e+004
3.670000e+002, 2.484300e+004
3.680000e+002, 2.463200e+004
3.690000e+002, 2.428300e+004
3.700000e+002, 2.433300e+004
3.710000e+002, 2.402200e+004
3.720000e+002, 2.411300e+004
3.730000e+002, 2.352400e+004
3.740000e+002, 2.343300e+004
3.750000e+002, 2.331400e+004
3.760000e+002, 2.338900e+004
3.770000e+002, 2.295700e+004
3.780000e+002, 2.283900e+004
3.790000e+002, 2.282500e+004
3.800000e+002, 2.255200e+004
3.810000e+002, 2.217900e+004
3.820000e+002, 2.224100e+004
3.830000e+002, 2.211400e+004
3.840000e+002, 2.172000e+004
3.850000e+002, 2.181100e+004
3.860000e+002, 2.146500e+004
3.870000e+002, 2.149200e+004
3.880000e+002, 2.098700e+004
3.890000e+002, 2.112500e+004
3.900000e+002, 2.104300e+004
3.910000e+002, 2.100800e+004
3.920000e+002, 2.050300e+004
3.930000e+002, 2.058600e+004
3.940000e+002, 2.005200e+004
3.950000e+002, 2.000800e+004
3.960000e+002, 1.990700e+004
3.970000e+002, 1.992500e+004
3.980000e+002, 1.965300e+004
3.990000e+002, 1.965400e+004
4.000000e+002, 1.948100e+004
4.010000e+002, 1.955000e+004
4.020000e+002, 1.925400e+004
4.030000e+002, 1.906700e+004
4.040000e+002, 1.876500e+004
4.050000e+002, 1.870200e+004
4.060000e+002, 1.861400e+004
4.070000e+002, 1.864500e+004
4.080000e+002, 1.844400e+004
4.090000e+002, 1.816500e+004
4.100000e+002, 1.835200e+004
4.110000e+002, 1.798900e+004
4.120000e+002, 1.781700e+004
4.130000e+002, 1.784700e+004
4.140000e+002, 1.759800e+004
4.150000e+002, 1.737500e+004
4.160000e+002, 1.740100e+004
4.170000e+002, 1.699700e+004
4.180000e+002, 1.725500e+004
4.190000e+002, 1.712700e+004
4.200000e+002, 1.682800e+004
4.210000e+002, 1.676600e+004
4.220000e+002, 1.682200e+004
4.230000e+002, 1.652300e+004
4.240000e+002, 1.666600e+004
4.250000e+002, 1.623600e+004
4.260000e+002, 1.615300e+004
4.270000e+002, 1.624400e+004
4.280000e+002, 1.596600e+004
4.290000e+002, 1.591600e+004
4.300000e+002, 1.557300e+004
4.310000e+002, 1.567500e+004
4.320000e+002, 1.556300e+004
4.330000e+002, 1.557900e+004
4.340000e+002, 1.547400e+004
4.350000e+002, 1.525100e+004
4.360000e+002, 1.530800e+004
4.370000e+002, 1.509900e+004
4.380000e+002, 1.505100e+004
4.390000e+002, 1.506400e+004
4.400000e+002, 1.479400e+004
4.410000e+002, 1.488600e+004
4.420000e+002, 1.452600e+004
4.430000e+002, 1.461600e+004
4.440000e+002, 1.459900e+004
4.450000e+002, 1.445900e+004
4.460000e+002, 1.404300e+004
4.470000e+002, 1.425500e+004
4.480000e+002, 1.419800e+004
4.490000e+002, 1.378400e+004
4.500000e+002, 1.381800e+004
4.510000e+002, 1.376400e+004
4.520000e+002, 1.355100e+004
4.530000e+002, 1.356600e+004
4.540000e+002, 1.346900e+004
4.550000e+002, 1.345300e+004
4.560000e+002, 1.322800e+004
4.570000e+002, 1.319200e+004
4.580000e+002, 1.314600e+004
4.590000e+002, 1.318100e+004
4.600000e+002, 1.298700e+004
4.610000e+002, 1.297500e+004
4.620000e+002, 1.279200e+004
4.630000e+002, 1.310200e+004
4.640000e+002, 1.261900e+004
4.650000e+002, 1.274300e+004
4.660000e+002, 1.246300e+004
4.670000e+002, 1.256600e+004
4.680000e+002, 1.257600e+004
4.690000e+002, 1.236700e+004
4.700000e+002, 1.226500e+004
4.710000e+002, 1.234200e+004
4.720000e+002, 1.212500e+004
4.730000e+002, 1.192200e+004
4.740000e+002, 1.204100e+004
4.750000e+002, 1.195600e+004
4.760000e+002, 1.201100e+004
4.770000e+002, 1.172400e+004
4.780000e+002, 1.170800e+004
4.790000e+002, 1.163300e+004
4.800000e+002, 1.155000e+004
4.810000e+002, 1.140700e+004
4.820000e+002, 1.147600e+004
4.830000e+002, 1.136600e+004
4.840000e+002, 1.131100e+004
4.850000e+002, 1.126000e+004
4.860000e+002, 1.119700e+004
4.870000e+002, 1.114500e+004
4.880000e+002, 1.094800e+004
4.890000e+002, 1.103400e+004
4.900000e+002, 1.103000e+004
4.910000e+002, 1.079600e+004
4.920000e+002, 1.090900e+004
4.930000e+002, 1.081900e+004
4.940000e+002, 1.074600e+004
4.950000e+002, 1.060200e+004
4.960000e+002, 1.077400e+004
4.970000e+002, 1.051600e+004
4.980000e+002, 1.066900e+004
4.990000e+002, 1.034300e+004
5.000000e+002, 1.024800e+004
5.010000e+002, 1.037900e+004
5.020000e+002, 1.029900e+004
5.030000e+002, 1.016300e+004
5.040000e+002, 9.946000e+003
5.050000e+002, 9.899000e+003
5.060000e+002, 9.744010e+003
5.070000e+002, 1.005200e+004
5.080000e+002, 9.865000e+003
5.090000e+002, 9.834000e+003
5.100000e+002, 1.000500e+004
5.110000e+002, 9.670000e+003
5.120000e+002, 9.594000e+003
5.130000e+002, 9.310000e+003
5.140000e+002, 9.560000e+003
5.150000e+002, 9.529000e+003
5.160000e+002, 9.501000e+003
5.170000e+002, 9.445010e+003
5.180000e+002, 9.429000e+003
5.190000e+002, 9.309000e+003
5.200000e+002, 9.037000e+003
5.210000e+002, 9.173000e+003
5.220000e+002, 9.294000e+003
5.230000e+002, 9.154000e+003
5.240000e+002, 9.020000e+003
5.250000e+002, 8.994000e+003
5.260000e+002, 8.945000e+003
5.270000e+002, 9.064010e+003
5.280000e+002, 8.867000e+003
5.290000e+002, 8.981000e+003
5.300000e+002, 8.973000e+003
5.310000e+002, 8.858000e+003
5.320000e+002, 8.907000e+003
5.330000e+002, 8.859000e+003
5.340000e+002, 8.727000e+003
5.350000e+002, 8.839000e+003
5.360000e+002, 8.956000e+003
5.370000e+002, 8.602000e+003
5.380000e+002, 8.609000e+003
5.390000e+002, 8.494000e+003
5.400000e+002, 8.268000e+003
5.410000e+002, 8.425000e+003
5.420000e+002, 8.465000e+003
5.430000e+002, 8.411000e+003
5.440000e+002, 8.460000e+003
5.450000e+002, 8.395010e+003
5.460000e+002, 8.387000e+003
5.470000e+002, 8.334000e+003
5.480000e+002, 8.159000e+003
5.490000e+002, 8.193000e+003
5.500000e+002, 7.903000e+003
5.510000e+002, 8.204000e+003
5.520000e+002, 8.098000e+003
5.530000e+002, 8.012000e+003
5.540000e+002, 8.037000e+003
5.550000e+002, 7.941000e+003
5.560000e+002, 7.950000e+003
5.570000e+002, 7.788000e+003
5.580000e+002, 7.813000e+003
5.590000e+002, 7.746000e+003
5.600000e+002, 7.831000e+003
5.610000e+002, 7.599000e+003
5.620000e+002, 7.755000e+003
5.630000e+002, 7.552000e+003
5.640000e+002, 7.708000e+003
5.650000e+002, 7.760000e+003
5.660000e+002, 7.442000e+003
5.670000e+002, 7.562000e+003
5.680000e+002, 7.575000e+003
5.690000e+002, 7.428000e+003
5.700000e+002, 7.510000e+003
5.710000e+002, 7.249000e+003
5.720000e+002, 7.312000e+003
5.730000e+002, 7.333000e+003
5.740000e+002, 7.275010e+003
5.750000e+002, 7.351000e+003
5.760000e+002, 7.224000e+003
5.770000e+002, 7.254000e+003
5.780000e+002, 7.111000e+003
5.790000e+002, 7.179010e+003
5.800000e+002, 7.101000e+003
5.810000e+002, 7.091000e+003
5.820000e+002, 7.071000e+003
5.830000e+002, 6.944000e+003
5.840000e+002, 6.956000e+003
5.850000e+002, 6.890000e+003
5.860000e+002, 6.802000e+003
5.870000e+002, 6.809000e+003
5.880000e+002, 7.021000e+003
5.890000e+002, 6.697000e+003
5.900000e+002, 6.701000e+003
5.910000e+002, 6.654000e+003
5.920000e+002, 6.866000e+003
5.930000e+002, 6.734000e+003
5.940000e+002, 6.687000e+003
5.950000e+002, 6.562000e+003
5.960000e+002, 6.699000e+003
5.970000e+002, 6.644000e+003
5.980000e+002, 6.487000e+003
5.990000e+002, 6.635000e+003
6.000000e+002, 6.499000e+003
6.010000e+002, 6.468000e+003
6.020000e+002, 6.388000e+003
6.030000e+002, 6.276000e+003
6.040000e+002, 6.414000e+003
6.050000e+002, 6.359000e+003
6.060000e+002, 6.245000e+003
6.070000e+002, 6.405000e+003
6.080000e+002, 6.267000e+003
6.090000e+002, 6.244000e+003
6.100000e+002, 6.239000e+003
6.110000e+002, 6.218000e+003
6.120000e+002, 6.017000e+003
6.130000e+002, 6.131000e+003
6.140000e+002, 6.018000e+003
6.150000e+002, 6.054000e+003
6.160000e+002, 5.991000e+003
6.170000e+002, 5.832000e+003
6.180000e+002, 6.006000e+003
6.190000e+002, 6.084000e+003
6.200000e+002, 6.039000e+003
6.210000e+002, 5.940000e+003
6.220000e+002, 5.837000e+003
6.230000e+002, 5.940000e+003
6.240000e+002, 5.892000e+003
6.250000e+002, 5.826000e+003
6.260000e+002, 5.829000e+003
6.270000e+002, 5.765000e+003
6.280000e+002, 5.729000e+003
6.290000e+002, 5.913000e+003
6.300000e+002, 5.672000e+003
6.310000e+002, 5.617000e+003
6.320000e+002, 5.661000e+003
6.330000e+002, 5.642000e+003
6.340000e+002, 5.626000e+003
6.350000e+002, 5.571000e+003
6.360000e+002, 5.549000e+003
6.370000e+002, 5.543000e+003
6.380000e+002, 5.472000e+003
6.390000e+002, 5.512000e+003
6.400000e+002, 5.444000e+003
6.410000e+002, 5.603000e+003
6.420000e+002, 5.398000e+003
6.430000e+002, 5.444000e+003
6.440000e+002, 5.428000e+003
6.450000e+002, 5.227000e+003
6.460000e+002, 5.416000e+003
6.470000e+002, 5.358000e+003
6.480000e+002, 5.361000e+003
6.490000e+002, 5.321000e+003
6.500000e+002, 5.391000e+003
6.510000e+002, 5.029000e+003
6.520000e+002, 5.413000e+003
6.530000e+002, 5.199000e+003
6.540000e+002, 5.160000e+003
6.550000e+002, 5.155000e+003
6.560000e+002, 5.143000e+003
6.570000e+002, 5.102000e+003
6.580000e+002, 4.990000e+003
6.590000e+002, 5.128000e+003
6.600000e+002, 5.009000e+003
6.610000e+002, 4.880000e+003
6.620000e+002, 5.041000e+003
6.630000e+002, 4.983000e+003
6.640000e+002, 5.023000e+003
6.650000e+002, 5.075000e+003
6.660000e+002, 4.976000e+003
6.670000e+002, 4.812000e+003
6.680000e+002, 4.937000e+003
6.690000e+002, 4.898000e+003
6.700000e+002, 5.017000e+003
6.710000e+002, 4.993000e+003
6.720000e+002, 4.785000e+003
6.730000e+002, 4.736000e+003
6.740000e+002, 4.729000e+003
6.750000e+002, 4.735000e+003
6.760000e+002, 4.801000e+003
6.770000e+002, 4.625000e+003
6.780000e+002, 4.661000e+003
6.790000e+002, 4.679000e+003
6.800000e+002, 4.575000e+003
6.810000e+002, 4.651000e+003
6.820000e+002, 4.767000e+003
6.830000e+002, 4.933000e+003
6.840000e+002, 4.947000e+003
6.850000e+002, 5.194000e+003
6.860000e+002, 5.886000e+003
6.870000e+002, 6.657000e+003
6.880000e+002, 6.962000e+003
6.890000e+002, 6.930000e+003
6.900000e+002, 6.667000e+003
6.910000e+002, 6.517000e+003
6.920000e+002, 6.335000e+003
6.930000e+002, 5.794000e+003
6.940000e+002, 5.619000e+003
6.950000e+002, 5.563000e+003
6.960000e+002, 5.501000e+003
6.970000e+002, 5.374000e+003
6.980000e+002, 5.241000e+003
6.990000e+002, 5.103000e+003
7.000000e+002, 4.960000e+003
7.010000e+002, 5.015000e+003
7.020000e+002, 4.942000e+003
7.030000e+002, 5.064000e+003
7.040000e+002, 5.026000e+003
7.050000e+002, 5.295000e+003
7.060000e+002, 5.385000e+003
7.070000e+002, 5.444000e+003
7.080000e+002, 5.607000e+003
7.090000e+002, 5.797000e+003
7.100000e+002, 5.901010e+003
7.110000e+002, 6.087000e+003
7.120000e+002, 6.153000e+003
7.130000e+002, 6.192000e+003
7.140000e+002, 6.164000e+003
7.150000e+002, 5.827000e+003
7.160000e+002, 5.909000e+003
7.170000e+002, 5.856000e+003
7.180000e+002, 5.655000e+003
7.190000e+002, 5.680000e+003
7.200000e+002, 5.607000e+003
7.210000e+002, 5.459000e+003
7.220000e+002, 5.511000e+003
7.230000e+002, 5.471000e+003
7.240000e+002, 5.511000e+003
7.250000e+002, 5.444000e+003
7.260000e+002, 5.379000e+003
7.270000e+002, 5.608000e+003
7.280000e+002, 5.525000e+003
7.290000e+002, 5.522000e+003
7.300000e+002, 5.451000e+003
7.310000e+002, 5.641000e+003
7.320000e+002, 5.599000e+003
7.330000e+002, 5.540000e+003
7.340000e+002, 5.614000e+003
7.350000e+002, 5.468000e+003
7.360000e+002, 5.500000e+003
7.370000e+002, 5.474000e+003
7.380000e+002, 5.641000e+003
7.390000e+002, 5.607000e+003
7.400000e+002, 5.561000e+003
7.410000e+002, 5.565000e+003
7.420000e+002, 5.445000e+003
7.430000e+002, 5.422000e+003
7.440000e+002, 5.416000e+003
7.450000e+002, 5.408000e+003
7.460000e+002, 5.560000e+003
7.470000e+002, 5.540000e+003
7.480000e+002, 5.528000e+003
7.490000e+002, 5.433000e+003
7.500000e+002, 5.586000e+003
7.510000e+002, 5.472000e+003
7.520000e+002, 5.579000e+003
7.530000e+002, 5.601000e+003
7.540000e+002, 5.547000e+003
7.550000e+002, 5.442000e+003
7.560000e+002, 5.442000e+003
7.570000e+002, 5.485000e+003
7.580000e+002, 5.489000e+003
7.590000e+002, 5.220000e+003
7.600000e+002, 5.426000e+003
7.610000e+002, 5.294000e+003
7.620000e+002, 5.311000e+003
7.630000e+002, 5.398000e+003
7.640000e+002, 5.401000e+003
7.650000e+002, 5.338000e+003
7.660000e+002, 5.280000e+003
7.670000e+002, 5.209000e+003
7.680000e+002, 5.275000e+003
7.690000e+002, 5.256000e+003
7.700000e+002, 5.306000e+003
7.710000e+002, 5.171000e+003
7.720000e+002, 5.165000e+003
7.730000e+002, 5.161000e+003
7.740000e+002, 5.320000e+003
7.750000e+002, 5.098000e+003
7.760000e+002, 5.224000e+003
7.770000e+002, 5.200000e+003
7.780000e+002, 5.170000e+003
7.790000e+002, 5.103000e+003
7.800000e+002, 5.196000e+003
7.810000e+002, 5.139000e+003
7.820000e+002, 5.174000e+003
7.830000e+002, 5.150000e+003
7.840000e+002, 5.082000e+003
7.850000e+002, 5.002000e+003
7.860000e+002, 5.061000e+003
7.870000e+002, 5.064000e+003
7.880000e+002, 4.955000e+003
7.890000e+002, 5.086000e+003
7.900000e+002, 5.110000e+003
7.910000e+002, 4.993000e+003
7.920000e+002, 5.092000e+003
7.930000e+002, 4.940000e+003
7.940000e+002, 5.028000e+003
7.950000e+002, 4.981000e+003
7.960000e+002, 4.967000e+003
7.970000e+002, 4.992000e+003
7.980000e+002, 4.808000e+003
7.990000e+002, 4.820000e+003
8.000000e+002, 4.919000e+003
8.010000e+002, 5.018000e+003
8.020000e+002, 4.911000e+003
8.030000e+002, 4.842000e+003
8.040000e+002, 5.058000e+003
8.050000e+002, 4.878000e+003
8.060000e+002, 4.836000e+003
8.070000e+002, 4.800000e+003
8.080000e+002, 4.796000e+003
8.090000e+002, 4.923000e+003
8.100000e+002, 4.803000e+003
8.110000e+002, 4.749000e+003
8.120000e+002, 4.940000e+003
8.130000e+002, 4.723000e+003
8.140000e+002, 4.728000e+003
8.150000e+002, 4.899000e+003
8.160000e+002, 4.645000e+003
8.170000e+002, 4.680000e+003
8.180000e+002, 4.769000e+003
8.190000e+002, 4.587000e+003
8.200000e+002, 4.602000e+003
8.210000e+002, 4.546000e+003
8.220000e+002, 4.551000e+003
8.230000e+002, 4.468000e+003
8.240000e+002, 4.724000e+003
8.250000e+002, 4.581000e+003
8.260000e+002, 4.618000e+003
8.270000e+002, 4.611000e+003
8.280000e+002, 4.573000e+003
8.290000e+002, 4.586000e+003
8.300000e+002, 4.529000e+003
8.310000e+002, 4.451000e+003
8.320000e+002, 4.461000e+003
8.330000e+002, 4.496000e+003
8.340000e+002, 4.464000e+003
8.350000e+002, 4.504000e+003
8.360000e+002, 4.463000e+003
8.370000e+002, 4.389000e+003
8.380000e+002, 4.432000e+003
8.390000e+002, 4.400000e+003
8.400000e+002, 4.381000e+003
8.410000e+002, 4.353000e+003
8.420000e+002, 4.514000e+003
8.430000e+002, 4.246000e+003
8.440000e+002, 4.372000e+003
8.450000e+002, 4.341000e+003
8.460000e+002, 4.247000e+003
8.470000e+002, 4.265000e+003
8.480000e+002, 4.240000e+003
8.490000e+002, 4.351000e+003
8.500000e+002, 4.246000e+003
8.510000e+002, 4.208000e+003
8.520000e+002, 4.313000e+003
8.530000e+002, 4.255000e+003
8.540000e+002, 4.279000e+003
8.550000e+002, 4.135000e+003
8.560000e+002, 4.200000e+003
8.570000e+002, 4.285000e+003
8.580000e+002, 4.237000e+003
8.590000e+002, 4.223000e+003
8.600000e+002, 4.194000e+003
8.610000e+002, 4.074000e+003
8.620000e+002, 4.146000e+003
8.630000e+002, 4.147000e+003
8.640000e+002, 4.145000e+003
8.650000e+002, 4.058000e+003
8.660000e+002, 4.127000e+003
8.670000e+002, 4.060000e+003
8.680000e+002, 4.110000e+003
8.690000e+002, 4.062000e+003
8.700000e+002, 4.082000e+003
8.710000e+002, 4.053000e+003
8.720000e+002, 4.142000e+003
8.730000e+002, 4.012000e+003
8.740000e+002, 3.998000e+003
8.750000e+002, 4.006000e+003
8.760000e+002, 3.990000e+003
8.770000e+002, 4.057000e+003
8.780000e+002, 3.969000e+003
8.790000e+002, 3.931000e+003
8.800000e+002, 3.969000e+003
8.810000e+002, 3.937000e+003
8.820000e+002, 3.900000e+003
8.830000e+002, 3.848000e+003
8.840000e+002, 3.844000e+003
8.850000e+002, 3.973000e+003
8.860000e+002, 3.921000e+003
8.870000e+002, 3.813000e+003
8.880000e+002, 3.859000e+003
8.890000e+002, 3.827000e+003
8.900000e+002, 3.829000e+003
8.910000e+002, 3.783000e+003
8.920000e+002, 3.842000e+003
8.930000e+002, 3.706000e+003
8.940000e+002, 3.838000e+003
8.950000e+002, 3.882000e+003
8.960000e+002, 3.857000e+003
8.970000e+002, 3.757000e+003
8.980000e+002, 3.808000e+003
8.990000e+002, 3.669000e+003
9.000000e+002, 3.759000e+003
9.010000e+002, 3.737000e+003
9.020000e+002, 3.746000e+003
9.030000e+002, 3.675000e+003
9.040000e+002, 3.686000e+003
9.050000e+002, 3.717000e+003
9.060000e+002, 3.727000e+003
9.070000e+002, 3.727000e+003
9.080000e+002, 3.622000e+003
9.090000e+002, 3.702000e+003
9.100000e+002, 3.636000e+003
9.110000e+002, 3.632000e+003
9.120000e+002, 3.618000e+003
9.130000e+002, 1.000000e-001
#ENDOFDATA   : End Of Data and File
